Wavelength [nm]	Wavenumbers [1/cm]	1 corrected	2 corrected	3 corrected	4 corrected
330.000	30303.03	0.05449	0.001164	1.548E-5	1.546E-5
332.000	30120.48	0.05518	0.001239	7.122E-5	0.000114
334.000	29940.12	0.05511	0.001178	3.999E-5	0.0001059
336.000	29761.90	0.05423	0.001107	6.183E-5	0.000124
338.000	29585.80	0.05295	0.001025	7.089E-5	6.99E-5
340.000	29411.76	0.05103	0.001063	7.837E-5	0.0001236
342.000	29239.76	0.04872	0.0008697	0.0001064	0.0001168
344.000	29069.76	0.04625	0.0008113	8.11E-5	5.061E-5
346.000	28901.73	0.04357	0.0007068	3.938E-5	4.906E-5
348.000	28735.63	0.04104	0.0005304	6.71E-5	6.718E-5
350.000	28571.43	0.03864	0.0005405	8.514E-5	8.514E-5
352.000	28409.09	0.03634	0.0004557	8.394E-5	4.599E-5
354.000	28248.59	0.03416	0.0003803	8.167E-5	0.0001464
356.000	28089.89	0.03197	0.0003838	0.0001136	0.0001307
358.000	27932.96	0.02984	0.0002925	8.145E-6	0.0001003
360.000	27777.78	0.02797	0.0002603	-2.43E-5	6.517E-5
362.000	27624.31	0.02629	0.0002359	3.207E-5	8.116E-5
364.000	27472.53	0.02487	0.0002102	7.499E-5	0.0001088
366.000	27322.40	0.02355	0.0001768	2.578E-5	9.734E-5
368.000	27173.91	0.02248	0.0001514	2.848E-5	8.468E-6
370.000	27027.02	0.02164	0.0002844	1.496E-5	1.496E-5
372.000	26881.72	0.02069	0.0002777	1.388E-5	1.388E-5
374.000	26737.97	0.01973	0.0002568	-1.273E-5	1.284E-5
376.000	26595.74	0.0189	0.0002378	-1.189E-5	-2.342E-5
378.000	26455.02	0.01805	0.0002421	3.238E-5	-2.204E-5
380.000	26315.79	0.01722	0.0002364	2.039E-5	-3.097E-5
382.000	26178.01	0.01644	0.0002019	1.924E-5	-6.774E-5
384.000	26041.66	0.01577	0.0001628	1.81E-5	-5.425E-5
386.000	25906.73	0.01516	0.0001711	1.711E-5	-2.571E-5
388.000	25773.19	0.01468	0.0001786	2.431E-5	-2.437E-5
390.000	25641.02	0.01439	0.000155	-7.339E-6	-3.085E-5
392.000	25510.20	0.01429	0.0001404	1.518E-5	-2.205E-5
394.000	25380.71	0.01438	0.0001777	6.998E-6	-1.409E-5
396.000	25252.52	0.01467	0.0001703	2.737E-5	-2.733E-5
398.000	25125.63	0.01513	0.0001707	2.626E-5	-2.626E-5
400.000	25000.00	0.01589	0.0001394	1.267E-5	1.267E-5
402.000	24875.62	0.01687	0.0001348	1.225E-5	1.225E-5
404.000	24752.47	0.01807	0.0001657	2.356E-5	1.188E-5
406.000	24630.54	0.01961	0.0001845	4.635E-5	1.151E-5
408.000	24509.80	0.0215	0.0002236	3.342E-5	1.116E-5
410.000	24390.24	0.02386	0.0002711	3.253E-5	1.084E-5
412.000	24271.84	0.02675	0.0003471	4.208E-5	1.053E-5
414.000	24154.59	0.03019	0.0004194	3.087E-5	1.025E-5
416.000	24038.46	0.03428	0.0005272	4.959E-5	1.98E-5
418.000	23923.44	0.03902	0.0006836	3.883E-5	1.948E-5
420.000	23809.52	0.0444	0.0008846	5.71E-5	1.9E-5
422.000	23696.68	0.05067	0.001142	7.43E-5	1.858E-5
424.000	23584.90	0.05776	0.001483	0.0001001	1.823E-5
426.000	23474.18	0.06583	0.001931	0.0001252	2.678E-5
428.000	23364.48	0.0748	0.002515	0.0001684	2.647E-5
430.000	23255.81	0.08482	0.003238	0.0002352	5.237E-5
432.000	23148.15	0.09588	0.004159	0.0003259	6.001E-5
434.000	23041.47	0.108	0.005277	0.0004489	5.933E-5
436.000	22935.78	0.1213	0.00667	0.0006273	7.532E-5
438.000	22831.05	0.1356	0.008341	0.0008678	0.0001074
440.000	22727.27	0.1512	0.01038	0.001179	0.0001651
442.000	22624.43	0.1678	0.01285	0.001609	0.0002369
444.000	22522.52	0.1852	0.01568	0.002167	0.0003408
446.000	22421.52	0.2033	0.01897	0.002867	0.0004777
448.000	22321.43	0.2218	0.02267	0.003727	0.0006815
450.000	22222.22	0.2411	0.02683	0.004773	0.0009307
452.000	22123.89	0.2607	0.03148	0.006064	0.001258
454.000	22026.43	0.2804	0.03653	0.007548	0.001673
456.000	21929.82	0.3005	0.04207	0.009322	0.002208
458.000	21834.06	0.3207	0.04806	0.01135	0.002865
460.000	21739.13	0.3412	0.05456	0.0137	0.003678
462.000	21645.02	0.3615	0.06147	0.01635	0.004658
464.000	21551.72	0.3817	0.06874	0.01932	0.005786
466.000	21459.23	0.402	0.07647	0.02261	0.007151
468.000	21367.52	0.4219	0.08455	0.02623	0.008698
470.000	21276.59	0.442	0.09305	0.03026	0.01053
472.000	21186.44	0.46	0.101	0.03413	0.01234
474.000	21097.05	0.4773	0.109	0.03821	0.01429
476.000	21008.40	0.4935	0.1169	0.04236	0.01637
478.000	20920.50	0.5088	0.1247	0.04654	0.01852
480.000	20833.33	0.5235	0.1324	0.05083	0.02079
482.000	20746.89	0.5373	0.1398	0.05509	0.02312
484.000	20661.16	0.5504	0.1472	0.05942	0.02552
486.000	20576.13	0.5626	0.1543	0.06368	0.02796
488.000	20491.80	0.5744	0.1611	0.0679	0.03039
490.000	20408.16	0.5853	0.1678	0.07202	0.03286
492.000	20325.20	0.5955	0.1742	0.07612	0.03534
494.000	20242.91	0.6058	0.1807	0.08029	0.03787
496.000	20161.29	0.6155	0.187	0.0844	0.04043
498.000	20080.32	0.6247	0.1929	0.08834	0.04289
500.000	20000.00	0.6326	0.1988	0.09217	0.04525
502.000	19920.32	0.6403	0.2044	0.09589	0.04755
504.000	19841.27	0.6468	0.2092	0.09919	0.04964
506.000	19762.84	0.6536	0.2141	0.1025	0.05171
508.000	19685.04	0.6594	0.2183	0.1055	0.05377
510.000	19607.84	0.6647	0.2221	0.1083	0.05573
512.000	19531.25	0.6703	0.2259	0.1111	0.05762
514.000	19455.25	0.675	0.2297	0.1138	0.05944
516.000	19379.84	0.6793	0.2334	0.1164	0.06118
518.000	19305.02	0.6833	0.237	0.119	0.06285
520.000	19230.77	0.687	0.2403	0.1214	0.06443
522.000	19157.09	0.6902	0.2435	0.1236	0.06587
524.000	19083.97	0.6934	0.2463	0.1256	0.0672
526.000	19011.41	0.6967	0.2488	0.1274	0.06847
528.000	18939.39	0.6992	0.2509	0.129	0.06953
530.000	18867.92	0.7009	0.2528	0.1305	0.07045
532.000	18796.99	0.7025	0.2545	0.1317	0.07132
534.000	18726.59	0.7035	0.2559	0.1328	0.07201
536.000	18656.72	0.7049	0.2573	0.1337	0.07263
538.000	18587.36	0.7056	0.2584	0.1345	0.07311
540.000	18518.52	0.7059	0.2593	0.1351	0.07344
542.000	18450.18	0.7059	0.26	0.1356	0.07363
544.000	18382.35	0.7053	0.2603	0.1358	0.07374
546.000	18315.02	0.705	0.2606	0.1359	0.07378
548.000	18248.17	0.7034	0.2604	0.1357	0.07359
550.000	18181.82	0.7022	0.2602	0.1354	0.07324
552.000	18115.94	0.7005	0.2597	0.1347	0.07274
554.000	18050.54	0.6985	0.2587	0.134	0.07211
556.000	17985.61	0.6962	0.2576	0.1331	0.07139
558.000	17921.15	0.6931	0.2565	0.132	0.07049
560.000	17857.14	0.6899	0.255	0.1307	0.06944
562.000	17793.59	0.6864	0.2533	0.1292	0.06837
564.000	17730.50	0.683	0.2511	0.1276	0.06713
566.000	17667.84	0.6789	0.2488	0.1257	0.06575
568.000	17605.63	0.6743	0.2463	0.1236	0.06425
570.000	17543.86	0.6697	0.2434	0.1213	0.06262
572.000	17482.52	0.6649	0.2401	0.1189	0.06087
574.000	17421.60	0.659	0.2364	0.1161	0.05899
576.000	17361.11	0.6525	0.2323	0.113	0.05692
578.000	17301.04	0.6455	0.2279	0.1097	0.05468
580.000	17241.38	0.6379	0.2229	0.106	0.05219
582.000	17182.13	0.6292	0.2175	0.1021	0.04957
584.000	17123.29	0.6201	0.2116	0.09789	0.04684
586.000	17064.85	0.6104	0.2054	0.09346	0.044
588.000	17006.80	0.5995	0.1985	0.08872	0.04099
590.000	16949.15	0.5876	0.191	0.08367	0.03788
592.000	16891.89	0.5752	0.1832	0.07857	0.0348
594.000	16835.02	0.5621	0.1751	0.07334	0.0317
596.000	16778.52	0.5486	0.1668	0.06815	0.02872
598.000	16722.41	0.5351	0.1588	0.06324	0.02597
600.000	16666.67	0.5216	0.1511	0.05858	0.02344
602.000	16611.30	0.5086	0.1437	0.05434	0.02119
604.000	16556.29	0.4965	0.1369	0.05043	0.01917
606.000	16501.65	0.4847	0.1306	0.04698	0.01742
608.000	16447.37	0.4745	0.1252	0.04406	0.01599
610.000	16393.44	0.466	0.1208	0.04172	0.01485
612.000	16339.87	0.4585	0.1172	0.03986	0.01397
614.000	16286.64	0.4525	0.1143	0.03839	0.01326
616.000	16233.77	0.4476	0.1121	0.03726	0.01274
618.000	16181.23	0.4439	0.1105	0.03641	0.01235
620.000	16129.03	0.4408	0.1093	0.03581	0.01207
622.000	16077.17	0.4386	0.1085	0.0354	0.01188
624.000	16025.64	0.4371	0.1079	0.03517	0.01176
626.000	15974.44	0.4359	0.1077	0.03503	0.01168
628.000	15923.57	0.4351	0.1075	0.03496	0.01165
630.000	15873.02	0.4346	0.1075	0.03494	0.01164
632.000	15822.78	0.4341	0.1075	0.03493	0.01163
634.000	15772.87	0.4337	0.1075	0.03494	0.01162
636.000	15723.27	0.4329	0.1075	0.03492	0.01162
638.000	15673.98	0.4323	0.1074	0.03488	0.01159
640.000	15625.00	0.4319	0.1074	0.03486	0.01158
642.000	15576.32	0.4313	0.1074	0.03485	0.01157
644.000	15527.95	0.4312	0.1076	0.03493	0.01159
646.000	15479.88	0.4311	0.108	0.03511	0.01166
648.000	15432.10	0.432	0.1087	0.03545	0.0118
650.000	15384.61	0.4336	0.1097	0.03596	0.01203
652.000	15337.42	0.4359	0.1113	0.03671	0.01237
654.000	15290.52	0.4394	0.1133	0.03773	0.01281
656.000	15243.90	0.4436	0.1159	0.03901	0.01339
658.000	15197.57	0.4487	0.1189	0.04055	0.01411
660.000	15151.51	0.4549	0.1225	0.04241	0.01497
662.000	15105.74	0.4621	0.1267	0.04461	0.01601
664.000	15060.24	0.4695	0.1312	0.04703	0.01716
666.000	15015.01	0.4771	0.136	0.04959	0.0184
668.000	14970.06	0.485	0.1409	0.05226	0.01972
670.000	14925.37	0.4929	0.1459	0.05502	0.02111
672.000	14880.95	0.5006	0.1508	0.05784	0.02256
674.000	14836.79	0.5082	0.1559	0.06075	0.02405
676.000	14792.90	0.5156	0.1608	0.06358	0.02554
678.000	14749.26	0.5224	0.1654	0.06634	0.02704
680.000	14705.88	0.5288	0.1697	0.06901	0.02846
682.000	14662.76	0.5346	0.1739	0.07149	0.02984
684.000	14619.88	0.5399	0.1777	0.07382	0.03112
686.000	14577.26	0.5447	0.1812	0.076	0.03236
688.000	14534.88	0.5492	0.1845	0.07803	0.03351
690.000	14492.75	0.5534	0.1876	0.07997	0.03459
692.000	14450.87	0.5569	0.1903	0.08169	0.03556
694.000	14409.22	0.56	0.1927	0.08325	0.03641
696.000	14367.82	0.563	0.1949	0.08465	0.03724
698.000	14326.65	0.5658	0.1971	0.08605	0.03802
700.000	14285.71	0.5677	0.1987	0.08716	0.03865
702.000	14245.01	0.5698	0.2006	0.08841	0.03937
704.000	14204.55	0.5718	0.2024	0.08954	0.03997
706.000	14164.31	0.5733	0.204	0.0905	0.04053
708.000	14124.29	0.5743	0.2051	0.09124	0.04095
710.000	14084.51	0.5753	0.2058	0.09164	0.04118
712.000	14044.94	0.5754	0.2062	0.09189	0.0413
714.000	14005.60	0.575	0.2061	0.09188	0.04129
716.000	13966.48	0.5745	0.206	0.09167	0.04119
718.000	13927.58	0.5735	0.2055	0.09138	0.04101
720.000	13888.89	0.5724	0.2053	0.0912	0.04086
722.000	13850.42	0.5719	0.2051	0.09114	0.04081
724.000	13812.15	0.5716	0.2054	0.09126	0.04089
726.000	13774.10	0.5723	0.2061	0.09171	0.04113
728.000	13736.26	0.5733	0.2073	0.09247	0.0416
730.000	13698.63	0.5753	0.2093	0.09372	0.04232
732.000	13661.20	0.578	0.2118	0.09536	0.0433
734.000	13623.98	0.5817	0.2149	0.09752	0.04455
736.000	13586.96	0.5857	0.2184	0.09995	0.046
738.000	13550.14	0.5903	0.2222	0.1027	0.04766
740.000	13513.51	0.5956	0.2266	0.1057	0.04953
742.000	13477.09	0.6008	0.2314	0.1089	0.05158
744.000	13440.86	0.6068	0.2364	0.1124	0.0538
746.000	13404.83	0.6128	0.2415	0.1161	0.05616
748.000	13368.98	0.6183	0.2465	0.1198	0.05851
750.000	13333.33	0.6238	0.2514	0.1233	0.06075
752.000	13297.87	0.629	0.256	0.1265	0.06291
754.000	13262.60	0.634	0.2602	0.1297	0.06503
756.000	13227.51	0.6383	0.2642	0.1328	0.067
758.000	13192.61	0.6426	0.268	0.1357	0.0689
760.000	13157.89	0.6462	0.2715	0.1384	0.07065
762.000	13123.36	0.6494	0.2747	0.1407	0.07224
764.000	13089.01	0.6524	0.2775	0.1429	0.07372
766.000	13054.83	0.6548	0.28	0.1448	0.07502
768.000	13020.83	0.6572	0.2822	0.1465	0.07614
770.000	12987.01	0.6592	0.2841	0.148	0.07718
772.000	12953.37	0.6607	0.286	0.1494	0.07808
774.000	12919.90	0.6621	0.2875	0.1505	0.0789
776.000	12886.60	0.6632	0.2891	0.1516	0.07967
778.000	12853.47	0.664	0.2905	0.1526	0.08035
780.000	12820.51	0.6652	0.2918	0.1537	0.081
782.000	12787.72	0.6668	0.2932	0.1548	0.08178
784.000	12755.10	0.6684	0.295	0.1562	0.08271
786.000	12722.65	0.6699	0.2971	0.1576	0.08368
788.000	12690.36	0.6718	0.2991	0.1592	0.08479
790.000	12658.23	0.6738	0.3014	0.1611	0.08608
792.000	12626.26	0.6763	0.3041	0.1633	0.08757
794.000	12594.46	0.6787	0.3067	0.1654	0.08914
796.000	12562.81	0.6817	0.3098	0.1679	0.0909
798.000	12531.33	0.6846	0.313	0.1704	0.09277
800.000	12500.00	0.6874	0.3163	0.1731	0.09475
802.000	12468.83	0.691	0.3198	0.1761	0.0969
804.000	12437.81	0.6942	0.3235	0.1791	0.0991
806.000	12406.95	0.6977	0.3271	0.1822	0.1013
808.000	12376.24	0.701	0.3309	0.1852	0.1036
810.000	12345.68	0.7038	0.3343	0.188	0.1057
812.000	12315.27	0.7074	0.3381	0.1911	0.108
814.000	12285.01	0.7108	0.3417	0.1941	0.1102
816.000	12254.90	0.7133	0.3453	0.1973	0.1123
818.000	12224.94	0.7165	0.3493	0.2004	0.1145
820.000	12195.12	0.7197	0.3534	0.2039	0.1168
822.000	12165.45	0.7228	0.3575	0.207	0.1188
824.000	12135.92	0.7261	0.3612	0.2098	0.1207
826.000	12106.54	0.7284	0.3642	0.2123	0.1226
828.000	12077.29	0.7308	0.3664	0.2144	0.1242
830.000	12048.19	0.7332	0.3679	0.2161	0.1258
832.000	12019.23	0.7348	0.3692	0.2175	0.1273
834.000	11990.41	0.7368	0.3703	0.219	0.1289
836.000	11961.72	0.7378	0.3713	0.2203	0.1303
838.000	11933.17	0.7393	0.3727	0.2219	0.1317
840.000	11904.76	0.7409	0.3746	0.2238	0.1332
842.000	11876.48	0.7423	0.3769	0.2257	0.1348
844.000	11848.34	0.7442	0.3792	0.2278	0.1363
846.000	11820.33	0.7455	0.3818	0.2299	0.1379
848.000	11792.45	0.7466	0.3842	0.2318	0.1394
850.000	11764.71	0.7477	0.3866	0.2338	0.1408
852.000	11737.09	0.7494	0.3886	0.2356	0.1421
854.000	11709.60	0.7499	0.3901	0.237	0.1433
856.000	11682.24	0.7508	0.3918	0.2383	0.1443
858.000	11655.01	0.7514	0.3933	0.2397	0.1453
860.000	11627.91	0.7516	0.3943	0.2407	0.146
862.000	11600.93	0.7521	0.3954	0.2412	0.1465
864.000	11574.07	0.7521	0.396	0.2418	0.1469
866.000	11547.34	0.7521	0.3963	0.2421	0.1469
868.000	11520.74	0.7513	0.3963	0.2421	0.147
870.000	11494.25	0.7507	0.3959	0.2419	0.1467
872.000	11467.89	0.7498	0.3956	0.2416	0.1465
874.000	11441.65	0.749	0.3958	0.2415	0.1464
876.000	11415.52	0.7492	0.3964	0.2421	0.1468
878.000	11389.52	0.7499	0.398	0.2434	0.1479
880.000	11363.64	0.7515	0.4001	0.2454	0.1494
882.000	11337.87	0.7532	0.4024	0.2476	0.1511
884.000	11312.22	0.7546	0.4043	0.2494	0.1525
886.000	11286.68	0.755	0.4054	0.2505	0.1534
888.000	11261.26	0.7558	0.4066	0.2513	0.1541
890.000	11235.95	0.7563	0.4075	0.2522	0.1547
892.000	11210.76	0.7564	0.4079	0.2527	0.1551
894.000	11185.68	0.7569	0.4089	0.2535	0.1556
896.000	11160.71	0.7568	0.4094	0.2541	0.1561
898.000	11135.86	0.7569	0.4102	0.2547	0.1566
900.000	11111.11	0.7571	0.4108	0.2553	0.1572
902.000	11086.47	0.7577	0.4122	0.2564	0.158
904.000	11061.95	0.759	0.414	0.2579	0.1593
906.000	11037.53	0.76	0.4158	0.2596	0.1606
908.000	11013.22	0.7612	0.4177	0.2612	0.1619
910.000	10989.01	0.7624	0.4191	0.2628	0.1632
912.000	10964.91	0.7634	0.4207	0.2644	0.1645
914.000	10940.92	0.7644	0.4225	0.2661	0.1658
916.000	10917.03	0.7656	0.4243	0.2677	0.1672
918.000	10893.25	0.7666	0.4262	0.2695	0.1685
920.000	10869.57	0.768	0.4279	0.2712	0.1697
922.000	10845.99	0.7689	0.4295	0.2726	0.1711
924.000	10822.51	0.7701	0.4312	0.2741	0.1724
926.000	10799.14	0.7713	0.4329	0.2757	0.1736
928.000	10775.86	0.7722	0.4344	0.2772	0.1749
930.000	10752.69	0.773	0.4362	0.2787	0.1761
932.000	10729.61	0.774	0.4376	0.2802	0.1773
934.000	10706.64	0.7751	0.4391	0.2819	0.1787
936.000	10683.76	0.7758	0.4408	0.2833	0.1799
938.000	10660.98	0.777	0.4423	0.2847	0.181
940.000	10638.30	0.778	0.4438	0.2859	0.1821
942.000	10615.71	0.7787	0.4449	0.2871	0.1831
944.000	10593.22	0.779	0.4459	0.2882	0.184
946.000	10570.82	0.7797	0.4471	0.2893	0.1849
948.000	10548.52	0.7801	0.4483	0.2903	0.1857
950.000	10526.32	0.7803	0.449	0.291	0.1863
952.000	10504.20	0.7805	0.4499	0.292	0.1869
954.000	10482.18	0.7811	0.4507	0.2928	0.1877
956.000	10460.25	0.7815	0.4516	0.2936	0.1883
958.000	10438.41	0.782	0.4525	0.2945	0.189
960.000	10416.67	0.7824	0.4533	0.2952	0.1896
962.000	10395.01	0.7826	0.4542	0.2958	0.1903
964.000	10373.44	0.7833	0.4551	0.2965	0.1909
966.000	10351.97	0.7832	0.4556	0.2973	0.1913
968.000	10330.58	0.783	0.4562	0.2979	0.1917
970.000	10309.28	0.783	0.4569	0.2985	0.1922
972.000	10288.07	0.7831	0.4575	0.2991	0.1927
974.000	10266.94	0.7835	0.458	0.2997	0.1931
976.000	10245.90	0.7837	0.4586	0.3001	0.1934
978.000	10224.95	0.7839	0.459	0.3004	0.1936
980.000	10204.08	0.7839	0.4593	0.3006	0.1939
982.000	10183.30	0.7835	0.4596	0.3008	0.1941
984.000	10162.60	0.7836	0.4601	0.301	0.1944
986.000	10141.99	0.7831	0.4601	0.3012	0.1945
988.000	10121.46	0.7831	0.4605	0.3015	0.1947
990.000	10101.01	0.7834	0.4611	0.302	0.195
992.000	10080.65	0.7832	0.4613	0.3023	0.1953
994.000	10060.36	0.7832	0.4615	0.3026	0.1955
996.000	10040.16	0.783	0.4618	0.3027	0.1955
998.000	10020.04	0.7828	0.4616	0.3027	0.1954
1000.000	10000.00	0.7826	0.4616	0.3027	0.1953
1002.000	9980.04	0.7827	0.462	0.303	0.1956
1004.000	9960.16	0.7825	0.4623	0.3033	0.1959
1006.000	9940.36	0.7826	0.4627	0.3038	0.1962
1008.000	9920.63	0.7829	0.4635	0.3045	0.1967
1010.000	9900.99	0.7834	0.4641	0.3054	0.1974
1012.000	9881.42	0.7839	0.465	0.3062	0.1982
1014.000	9861.93	0.7844	0.4664	0.3071	0.1991
1016.000	9842.52	0.7855	0.4678	0.3084	0.2001
1018.000	9823.18	0.7864	0.4692	0.3097	0.2011
1020.000	9803.92	0.7872	0.4703	0.3109	0.2019
1022.000	9784.74	0.788	0.4713	0.3118	0.2027
1024.000	9765.62	0.7884	0.472	0.3126	0.2035
1026.000	9746.59	0.789	0.4729	0.3135	0.2042
1028.000	9727.63	0.7896	0.4742	0.3145	0.205
1030.000	9708.74	0.7905	0.4752	0.3155	0.2059
1032.000	9689.92	0.7909	0.4762	0.3164	0.2067
1034.000	9671.18	0.7916	0.4773	0.3174	0.2076
1036.000	9652.51	0.7923	0.4787	0.3184	0.2085
1038.000	9633.91	0.7933	0.4798	0.3196	0.2094
1040.000	9615.38	0.7943	0.4808	0.321	0.2104
1042.000	9596.93	0.7956	0.4827	0.3228	0.2117
1044.000	9578.54	0.7965	0.4843	0.3242	0.2131
1046.000	9560.23	0.7977	0.4858	0.3257	0.2145
1048.000	9541.98	0.799	0.487	0.3272	0.2157
1050.000	9523.81	0.7997	0.4884	0.3284	0.2166
1052.000	9505.70	0.8005	0.4898	0.3295	0.2176
1054.000	9487.67	0.8016	0.4911	0.3306	0.2187
1056.000	9469.70	0.8024	0.4923	0.3318	0.2198
1058.000	9451.80	0.8035	0.4937	0.3332	0.221
1060.000	9433.96	0.8049	0.4954	0.3347	0.2222
1062.000	9416.20	0.8058	0.4967	0.336	0.2232
1064.000	9398.50	0.8068	0.4981	0.3371	0.2242
1066.000	9380.86	0.807	0.4991	0.3381	0.2252
1068.000	9363.30	0.8075	0.5001	0.3393	0.2261
1070.000	9345.79	0.8075	0.5011	0.3406	0.227
1072.000	9328.36	0.8081	0.5019	0.3418	0.2278
1074.000	9310.99	0.8088	0.5033	0.3428	0.2287
1076.000	9293.68	0.8095	0.5043	0.3436	0.2296
1078.000	9276.44	0.81	0.5052	0.3444	0.2304
1080.000	9259.26	0.8099	0.5059	0.3453	0.2311
1082.000	9242.14	0.8107	0.5068	0.3462	0.2319
1084.000	9225.09	0.8108	0.5075	0.3468	0.2324
1086.000	9208.10	0.8111	0.508	0.3473	0.2329
1088.000	9191.18	0.8113	0.5083	0.3477	0.2332
1090.000	9174.31	0.8112	0.5086	0.3481	0.2336
1092.000	9157.51	0.8112	0.5089	0.3486	0.2339
1094.000	9140.77	0.8114	0.5092	0.3489	0.2342
1096.000	9124.09	0.8118	0.5097	0.3493	0.2343
1098.000	9107.47	0.8114	0.5099	0.3492	0.2342
